Listing of POP Encircled Power

File : C:\Users\ruhllab\Desktop\Spider_Zemax\files_for_Lorenzo\150_Spider_beams.zmx
Title: Lens has no title.
Date : 9/17/2018


Wavelength 1763.00000 Âµm in index 1.00000 at 0.0000 mm
Display X Width = 1.1038E+004, Y Height = 1.1038E+004 Millimeters
Grid size (X by Y): 1024 by 1024

Total Power: 1.0000 Watts

        Radius        % Power
 0.000000E+000	      0.000000
 2.155847E+001	      0.005855
 4.311694E+001	      0.023418
 6.467541E+001	      0.055333
 8.623388E+001	      0.094364
 1.077924E+002	      0.148859
 1.293508E+002	      0.202192
 1.509093E+002	      0.265014
 1.724678E+002	      0.329498
 1.940262E+002	      0.399051
 2.155847E+002	      0.461509
 2.371432E+002	      0.523635
 2.587016E+002	      0.579187
 2.802601E+002	      0.630604
 3.018186E+002	      0.674052
 3.233771E+002	      0.713206
 3.449355E+002	      0.742926
 3.664940E+002	      0.766975
 3.880525E+002	      0.784754
 4.096109E+002	      0.797323
 4.311694E+002	      0.805566
 4.527279E+002	      0.810771
 4.742864E+002	      0.813578
 4.958448E+002	      0.815046
 5.174033E+002	      0.815965
 5.389618E+002	      0.817061
 5.605202E+002	      0.818886
 5.820787E+002	      0.821749
 6.036372E+002	      0.825671
 6.251957E+002	      0.830879
 6.467541E+002	      0.837228
 6.683126E+002	      0.844157
 6.898711E+002	      0.851679
 7.114295E+002	      0.859558
 7.329880E+002	      0.867146
 7.545465E+002	      0.874479
 7.761049E+002	      0.881091
 7.976634E+002	      0.886781
 8.192219E+002	      0.891669
 8.407804E+002	      0.895535
 8.623388E+002	      0.898450
 8.838973E+002	      0.900530
 9.054558E+002	      0.901880
 9.270142E+002	      0.902688
 9.485727E+002	      0.903149
 9.701312E+002	      0.903450
 9.916897E+002	      0.903758
 1.013248E+003	      0.904218
 1.034807E+003	      0.904945
 1.056365E+003	      0.906006
 1.077924E+003	      0.907451
 1.099482E+003	      0.909299
 1.121040E+003	      0.911497
 1.142599E+003	      0.914006
 1.164157E+003	      0.916674
 1.185716E+003	      0.919487
 1.207274E+003	      0.922312
 1.228833E+003	      0.924999
 1.250391E+003	      0.927553
 1.271950E+003	      0.929806
 1.293508E+003	      0.931751
 1.315067E+003	      0.933371
 1.336625E+003	      0.934634
 1.358184E+003	      0.935556
 1.379742E+003	      0.936203
 1.401301E+003	      0.936600
 1.422859E+003	      0.936842
 1.444418E+003	      0.936988
 1.465976E+003	      0.937125
 1.487534E+003	      0.937313
 1.509093E+003	      0.937625
 1.530651E+003	      0.938101
 1.552210E+003	      0.938778
 1.573768E+003	      0.939661
 1.595327E+003	      0.940736
 1.616885E+003	      0.941996
 1.638444E+003	      0.943397
 1.660002E+003	      0.944887
 1.681561E+003	      0.946410
 1.703119E+003	      0.947893
 1.724678E+003	      0.949302
 1.746236E+003	      0.950598
 1.767795E+003	      0.951715
 1.789353E+003	      0.952640
 1.810912E+003	      0.953375
 1.832470E+003	      0.953912
 1.854028E+003	      0.954280
 1.875587E+003	      0.954506
 1.897145E+003	      0.954629
 1.918704E+003	      0.954697
 1.940262E+003	      0.954756
 1.961821E+003	      0.954850
 1.983379E+003	      0.955021
 2.004938E+003	      0.955297
 2.026496E+003	      0.955698
 2.048055E+003	      0.956236
 2.069613E+003	      0.956903
 2.091172E+003	      0.957685
 2.112730E+003	      0.958571
 2.134289E+003	      0.959509
 2.155847E+003	      0.960476
 2.177406E+003	      0.961443
 2.198964E+003	      0.962356
 2.220522E+003	      0.963199
 2.242081E+003	      0.963941
 2.263639E+003	      0.964561
 2.285198E+003	      0.965059
 2.306756E+003	      0.965432
 2.328315E+003	      0.965691
 2.349873E+003	      0.965858
 2.371432E+003	      0.965952
 2.392990E+003	      0.966005
 2.414549E+003	      0.966047
 2.436107E+003	      0.966108
 2.457666E+003	      0.966215
 2.479224E+003	      0.966392
 2.500783E+003	      0.966651
 2.522341E+003	      0.967005
 2.543900E+003	      0.967452
 2.565458E+003	      0.967986
 2.587016E+003	      0.968595
 2.608575E+003	      0.969253
 2.630133E+003	      0.969942
 2.651692E+003	      0.970637
 2.673250E+003	      0.971307
 2.694809E+003	      0.971938
 2.716367E+003	      0.972500
 2.737926E+003	      0.972975
 2.759484E+003	      0.973358
 2.781043E+003	      0.973651
 2.802601E+003	      0.973855
 2.824160E+003	      0.973986
 2.845718E+003	      0.974058
 2.867277E+003	      0.974096
 2.888835E+003	      0.974122
 2.910394E+003	      0.974162
 2.931952E+003	      0.974235
 2.953510E+003	      0.974363
 2.975069E+003	      0.974555
 2.996627E+003	      0.974823
 3.018186E+003	      0.975168
 3.039744E+003	      0.975577
 3.061303E+003	      0.976049
 3.082861E+003	      0.976567
 3.104420E+003	      0.977102
 3.125978E+003	      0.977647
 3.147537E+003	      0.978171
 3.169095E+003	      0.978662
 3.190654E+003	      0.979101
 3.212212E+003	      0.979471
 3.233771E+003	      0.979770
 3.255329E+003	      0.980000
 3.276888E+003	      0.980162
 3.298446E+003	      0.980264
 3.320004E+003	      0.980322
 3.341563E+003	      0.980353
 3.363121E+003	      0.980375
 3.384680E+003	      0.980405
 3.406238E+003	      0.980463
 3.427797E+003	      0.980563
 3.449355E+003	      0.980715
 3.470914E+003	      0.980925
 3.492472E+003	      0.981196
 3.514031E+003	      0.981526
 3.535589E+003	      0.981909
 3.557148E+003	      0.982325
 3.578706E+003	      0.982763
 3.600265E+003	      0.983208
 3.621823E+003	      0.983649
 3.643382E+003	      0.984057
 3.664940E+003	      0.984424
 3.686498E+003	      0.984742
 3.708057E+003	      0.985004
 3.729615E+003	      0.985205
 3.751174E+003	      0.985348
 3.772732E+003	      0.985442
 3.794291E+003	      0.985496
 3.815849E+003	      0.985524
 3.837408E+003	      0.985541
 3.858966E+003	      0.985564
 3.880525E+003	      0.985606
 3.902083E+003	      0.985682
 3.923642E+003	      0.985803
 3.945200E+003	      0.985973
 3.966759E+003	      0.986197
 3.988317E+003	      0.986471
 4.009876E+003	      0.986793
 4.031434E+003	      0.987151
 4.052992E+003	      0.987530
 4.074551E+003	      0.987919
 4.096109E+003	      0.988301
 4.117668E+003	      0.988666
 4.139226E+003	      0.988997
 4.160785E+003	      0.989284
 4.182343E+003	      0.989522
 4.203902E+003	      0.989706
 4.225460E+003	      0.989841
 4.247019E+003	      0.989929
 4.268577E+003	      0.989981
 4.290136E+003	      0.990007
 4.311694E+003	      0.990021
 4.333253E+003	      0.990038
 4.354811E+003	      0.990071
 4.376370E+003	      0.990132
 4.397928E+003	      0.990231
 4.419486E+003	      0.990375
 4.441045E+003	      0.990569
 4.462603E+003	      0.990809
 4.484162E+003	      0.991092
 4.505720E+003	      0.991409
 4.527279E+003	      0.991749
 4.548837E+003	      0.992102
 4.570396E+003	      0.992453
 4.591954E+003	      0.992788
 4.613513E+003	      0.993095
 4.635071E+003	      0.993365
 4.656630E+003	      0.993593
 4.678188E+003	      0.993773
 4.699747E+003	      0.993905
 4.721305E+003	      0.993995
 4.742864E+003	      0.994049
 4.764422E+003	      0.994077
 4.785981E+003	      0.994092
 4.807539E+003	      0.994105
 4.829097E+003	      0.994131
 4.850656E+003	      0.994181
 4.872214E+003	      0.994265
 4.893773E+003	      0.994390
 4.915331E+003	      0.994559
 4.936890E+003	      0.994774
 4.958448E+003	      0.995030
 4.980007E+003	      0.995322
 5.001565E+003	      0.995640
 5.023124E+003	      0.995972
 5.044682E+003	      0.996305
 5.066241E+003	      0.996628
 5.087799E+003	      0.996928
 5.109358E+003	      0.997194
 5.130916E+003	      0.997422
 5.152475E+003	      0.997604
 5.174033E+003	      0.997740
 5.195591E+003	      0.997834
 5.217150E+003	      0.997892
 5.238708E+003	      0.997923
 5.260267E+003	      0.997937
 5.281825E+003	      0.997948
 5.303384E+003	      0.997968
 5.324942E+003	      0.998009
 5.346501E+003	      0.998081
 5.368059E+003	      0.998192
 5.389618E+003	      0.998347
 5.411176E+003	      0.998546
 5.432735E+003	      0.998788
 5.454293E+003	      0.999076
 5.475852E+003	      0.999387
 5.497410E+003	      0.999715
 5.518969E+003	      0.999801
